#  E (eV)   dos(E)     Int dos(E) EFermi =   7.634 eV
 -12.000  0.0000E+00  0.0000E+00
 -11.900  0.0000E+00  0.0000E+00
 -11.800  0.0000E+00  0.0000E+00
 -11.700  0.0000E+00  0.0000E+00
 -11.600  0.0000E+00  0.0000E+00
 -11.500  0.0000E+00  0.0000E+00
 -11.400  0.0000E+00  0.0000E+00
 -11.300  0.0000E+00  0.0000E+00
 -11.200  0.0000E+00  0.0000E+00
 -11.100  0.0000E+00  0.0000E+00
 -11.000  0.0000E+00  0.0000E+00
 -10.900  0.0000E+00  0.0000E+00
 -10.800  0.0000E+00  0.0000E+00
 -10.700  0.0000E+00  0.0000E+00
 -10.600  0.0000E+00  0.0000E+00
 -10.500  0.0000E+00  0.0000E+00
 -10.400  0.0000E+00  0.0000E+00
 -10.300  0.0000E+00  0.0000E+00
 -10.200  0.0000E+00  0.0000E+00
 -10.100  0.0000E+00  0.0000E+00
 -10.000  0.0000E+00  0.0000E+00
  -9.900  0.0000E+00  0.0000E+00
  -9.800  0.1052E-15  0.1052E-16
  -9.700  0.1194E-14  0.1299E-15
  -9.600  0.6036E-14  0.7335E-15
  -9.500  0.2728E-13  0.3462E-14
  -9.400  0.1193E-12  0.1540E-13
  -9.300  0.5201E-12  0.6740E-13
  -9.200  0.2263E-11  0.2937E-12
  -9.100  0.9842E-11  0.1278E-11
  -9.000  0.4280E-10  0.5558E-11
  -8.900  0.1862E-09  0.2417E-10
  -8.800  0.8096E-09  0.1051E-09
  -8.700  0.3521E-08  0.4573E-09
  -8.600  0.1531E-07  0.1989E-08
  -8.500  0.6660E-07  0.8649E-08
  -8.400  0.2897E-06  0.3762E-07
  -8.300  0.1260E-05  0.1636E-06
  -8.200  0.5479E-05  0.7115E-06
  -8.100  0.2383E-04  0.3094E-05
  -8.000  0.1036E-03  0.1346E-04
  -7.900  0.4505E-03  0.5851E-04
  -7.800  0.1956E-02  0.2541E-03
  -7.700  0.8452E-02  0.1099E-02
  -7.600  0.3573E-01  0.4672E-02
  -7.500  0.1387E+00  0.1854E-01
  -7.400  0.4158E+00  0.6012E-01
  -7.300  0.7912E+00  0.1392E+00
  -7.200  0.1021E+01  0.2413E+00
  -7.100  0.1122E+01  0.3536E+00
  -7.000  0.1155E+01  0.4691E+00
  -6.900  0.1224E+01  0.5915E+00
  -6.800  0.1241E+01  0.7156E+00
  -6.700  0.1286E+01  0.8441E+00
  -6.600  0.1402E+01  0.9843E+00
  -6.500  0.1471E+01  0.1131E+01
  -6.400  0.1751E+01  0.1307E+01
  -6.300  0.2406E+01  0.1547E+01
  -6.200  0.3057E+01  0.1853E+01
  -6.100  0.3582E+01  0.2211E+01
  -6.000  0.4075E+01  0.2619E+01
  -5.900  0.4476E+01  0.3066E+01
  -5.800  0.5153E+01  0.3581E+01
  -5.700  0.6128E+01  0.4194E+01
  -5.600  0.6899E+01  0.4884E+01
  -5.500  0.6960E+01  0.5580E+01
  -5.400  0.6611E+01  0.6241E+01
  -5.300  0.6316E+01  0.6873E+01
  -5.200  0.5538E+01  0.7427E+01
  -5.100  0.3612E+01  0.7788E+01
  -5.000  0.1534E+01  0.7941E+01
  -4.900  0.4460E+00  0.7986E+01
  -4.800  0.1094E+00  0.7997E+01
  -4.700  0.2554E-01  0.7999E+01
  -4.600  0.5893E-02  0.8000E+01
  -4.500  0.1356E-02  0.8000E+01
  -4.400  0.3119E-03  0.8000E+01
  -4.300  0.7171E-04  0.8000E+01
  -4.200  0.1649E-04  0.8000E+01
  -4.100  0.3791E-05  0.8000E+01
  -4.000  0.8718E-06  0.8000E+01
  -3.900  0.2004E-06  0.8000E+01
  -3.800  0.4609E-07  0.8000E+01
  -3.700  0.1060E-07  0.8000E+01
  -3.600  0.2437E-08  0.8000E+01
  -3.500  0.5603E-09  0.8000E+01
  -3.400  0.1288E-09  0.8000E+01
  -3.300  0.2962E-10  0.8000E+01
  -3.200  0.6809E-11  0.8000E+01
  -3.100  0.1564E-11  0.8000E+01
  -3.000  0.3585E-12  0.8000E+01
  -2.900  0.8120E-13  0.8000E+01
  -2.800  0.1745E-13  0.8000E+01
  -2.700  0.2881E-14  0.8000E+01
  -2.600  0.0000E+00  0.8000E+01
  -2.500  0.0000E+00  0.8000E+01
  -2.400  0.0000E+00  0.8000E+01
  -2.300  0.0000E+00  0.8000E+01
  -2.200  0.0000E+00  0.8000E+01
  -2.100  0.0000E+00  0.8000E+01
  -2.000  0.0000E+00  0.8000E+01
  -1.900  0.0000E+00  0.8000E+01
  -1.800  0.0000E+00  0.8000E+01
  -1.700  0.0000E+00  0.8000E+01
  -1.600  0.0000E+00  0.8000E+01
  -1.500  0.0000E+00  0.8000E+01
  -1.400  0.1128E-14  0.8000E+01
  -1.300  0.6724E-14  0.8000E+01
  -1.200  0.3151E-13  0.8000E+01
  -1.100  0.1393E-12  0.8000E+01
  -1.000  0.6090E-12  0.8000E+01
  -0.900  0.2652E-11  0.8000E+01
  -0.800  0.1154E-10  0.8000E+01
  -0.700  0.5021E-10  0.8000E+01
  -0.600  0.2184E-09  0.8000E+01
  -0.500  0.9497E-09  0.8000E+01
  -0.400  0.4131E-08  0.8000E+01
  -0.300  0.1796E-07  0.8000E+01
  -0.200  0.7813E-07  0.8000E+01
  -0.100  0.3398E-06  0.8000E+01
   0.000  0.1478E-05  0.8000E+01
   0.100  0.6427E-05  0.8000E+01
   0.200  0.2795E-04  0.8000E+01
   0.300  0.1216E-03  0.8000E+01
   0.400  0.5286E-03  0.8000E+01
   0.500  0.2297E-02  0.8000E+01
   0.600  0.9953E-02  0.8001E+01
   0.700  0.4262E-01  0.8006E+01
   0.800  0.1737E+00  0.8023E+01
   0.900  0.5977E+00  0.8083E+01
   1.000  0.1417E+01  0.8224E+01
   1.100  0.2248E+01  0.8449E+01
   1.200  0.2838E+01  0.8733E+01
   1.300  0.3526E+01  0.9086E+01
   1.400  0.4558E+01  0.9541E+01
   1.500  0.6078E+01  0.1015E+02
   1.600  0.7573E+01  0.1091E+02
   1.700  0.7888E+01  0.1170E+02
   1.800  0.7191E+01  0.1241E+02
   1.900  0.5755E+01  0.1299E+02
   2.000  0.4031E+01  0.1339E+02
   2.100  0.2764E+01  0.1367E+02
   2.200  0.1980E+01  0.1387E+02
   2.300  0.1698E+01  0.1404E+02
   2.400  0.1786E+01  0.1422E+02
   2.500  0.2489E+01  0.1446E+02
   2.600  0.4033E+01  0.1487E+02
   2.700  0.6358E+01  0.1550E+02
   2.800  0.8286E+01  0.1633E+02
   2.900  0.8367E+01  0.1717E+02
   3.000  0.6625E+01  0.1783E+02
   3.100  0.4604E+01  0.1829E+02
   3.200  0.3559E+01  0.1865E+02
   3.300  0.3622E+01  0.1901E+02
   3.400  0.4883E+01  0.1950E+02
   3.500  0.7046E+01  0.2020E+02
   3.600  0.8719E+01  0.2107E+02
   3.700  0.8002E+01  0.2188E+02
   3.800  0.5869E+01  0.2246E+02
   3.900  0.4395E+01  0.2290E+02
   4.000  0.3672E+01  0.2327E+02
   4.100  0.3299E+01  0.2360E+02
   4.200  0.3199E+01  0.2392E+02
   4.300  0.3503E+01  0.2427E+02
   4.400  0.4216E+01  0.2469E+02
   4.500  0.4432E+01  0.2513E+02
   4.600  0.5192E+01  0.2565E+02
   4.700  0.7088E+01  0.2636E+02
   4.800  0.8639E+01  0.2723E+02
   4.900  0.8378E+01  0.2806E+02
   5.000  0.7117E+01  0.2877E+02
   5.100  0.5940E+01  0.2937E+02
   5.200  0.5035E+01  0.2987E+02
   5.300  0.4735E+01  0.3035E+02
   5.400  0.4635E+01  0.3081E+02
   5.500  0.4369E+01  0.3125E+02
   5.600  0.3865E+01  0.3163E+02
   5.700  0.3816E+01  0.3201E+02
   5.800  0.4872E+01  0.3250E+02
   5.900  0.6044E+01  0.3311E+02
   6.000  0.5960E+01  0.3370E+02
   6.100  0.5158E+01  0.3422E+02
   6.200  0.4406E+01  0.3466E+02
   6.300  0.3863E+01  0.3504E+02
   6.400  0.3113E+01  0.3536E+02
   6.500  0.2394E+01  0.3560E+02
   6.600  0.1758E+01  0.3577E+02
   6.700  0.1112E+01  0.3588E+02
   6.800  0.6235E+00  0.3594E+02
   6.900  0.3389E+00  0.3598E+02
   7.000  0.1515E+00  0.3599E+02
   7.100  0.4852E-01  0.3600E+02
   7.200  0.1240E-01  0.3600E+02
   7.300  0.2928E-02  0.3600E+02
   7.400  0.6783E-03  0.3600E+02
   7.500  0.1591E-03  0.3600E+02
   7.600  0.4923E-04  0.3600E+02
   7.700  0.6629E-04  0.3600E+02
   7.800  0.2543E-03  0.3600E+02
   7.900  0.1098E-02  0.3600E+02
   8.000  0.4764E-02  0.3600E+02
   8.100  0.2057E-01  0.3600E+02
   8.200  0.8685E-01  0.3601E+02
   8.300  0.3360E+00  0.3605E+02
   8.400  0.1018E+01  0.3615E+02
   8.500  0.2141E+01  0.3636E+02
   8.600  0.3444E+01  0.3671E+02
   8.700  0.4856E+01  0.3719E+02
   8.800  0.6379E+01  0.3783E+02
   8.900  0.7978E+01  0.3863E+02
   9.000  0.8602E+01  0.3949E+02
   9.100  0.7867E+01  0.4027E+02
   9.200  0.7492E+01  0.4102E+02
   9.300  0.7193E+01  0.4174E+02
   9.400  0.6412E+01  0.4238E+02
   9.500  0.5049E+01  0.4289E+02
   9.600  0.3726E+01  0.4326E+02
   9.700  0.2833E+01  0.4354E+02
   9.800  0.2031E+01  0.4375E+02
   9.900  0.1323E+01  0.4388E+02
  10.000  0.7554E+00  0.4395E+02
  10.100  0.3236E+00  0.4399E+02
  10.200  0.9649E-01  0.4400E+02
  10.300  0.2389E-01  0.4400E+02
  10.400  0.5593E-02  0.4400E+02
  10.500  0.1291E-02  0.4400E+02
  10.600  0.2972E-03  0.4400E+02
  10.700  0.6836E-04  0.4400E+02
  10.800  0.1572E-04  0.4400E+02
  10.900  0.3614E-05  0.4400E+02
  11.000  0.8310E-06  0.4400E+02
  11.100  0.1911E-06  0.4400E+02
  11.200  0.4394E-07  0.4400E+02
  11.300  0.1010E-07  0.4400E+02
  11.400  0.2323E-08  0.4400E+02
  11.500  0.5341E-09  0.4400E+02
  11.600  0.1228E-09  0.4400E+02
  11.700  0.2823E-10  0.4400E+02
  11.800  0.6491E-11  0.4400E+02
  11.900  0.1491E-11  0.4400E+02
  12.000  0.3421E-12  0.4400E+02
